timestamps,TP9,AF7,AF8,TP10,Right AUX
1709299115.348,-49.316,-42.969,-36.621,-36.133,0.000
1709299115.352,-42.969,-47.852,-35.156,-32.715,0.000
1709299115.356,-56.152,-45.410,-35.645,-44.434,0.000
1709299115.360,-68.848,-44.434,-41.504,-56.152,0.000
1709299115.364,-66.406,-45.410,-38.086,-54.688,0.000
1709299115.368,-53.711,-44.434,-34.180,-42.480,0.000
1709299115.372,-35.645,-41.992,-33.691,-22.461,0.000
1709299115.376,-32.227,-44.922,-32.227,-28.320,0.000
1709299115.379,-38.086,-44.434,-30.762,-45.898,0.000
1709299115.383,-40.039,-32.715,-29.785,-38.086,0.000
1709299115.387,-27.344,-37.598,-29.297,-21.973,0.000
1709299115.391,-13.184,-33.203,-32.715,-24.414,0.000
1709299115.395,-22.461,-25.879,-41.504,-36.133,0.000
1709299115.399,-39.551,-25.391,-38.574,-43.945,0.000
1709299115.403,-40.527,-21.973,-33.203,-46.875,0.000
1709299115.407,-23.438,-21.484,-29.297,-35.156,0.000
1709299115.411,-16.113,-28.320,-35.156,-24.902,0.000
1709299115.415,-30.273,-33.203,-35.645,-30.762,0.000
1709299115.418,-42.480,-31.250,-33.203,-49.316,0.000
1709299115.422,-49.316,-34.668,-43.457,-55.176,0.000
1709299115.426,-38.086,-48.340,-40.039,-43.945,0.000
1709299115.430,-27.832,-46.387,-40.039,-28.809,0.000
1709299115.434,-35.645,-33.203,-36.621,-25.391,0.000
1709299115.438,-43.457,-28.809,-28.320,-45.898,0.000
1709299115.442,-52.246,-30.762,-35.156,-60.547,0.000
1709299115.446,-46.387,-35.156,-38.086,-53.711,0.000
1709299115.450,-24.902,-27.344,-31.738,-32.227,0.000
1709299115.454,-22.461,-21.973,-28.809,-26.367,0.000
1709299115.458,-31.738,-32.715,-33.203,-42.969,0.000
1709299115.461,-37.598,-35.156,-38.574,-45.898,0.000
1709299115.465,-29.785,-31.250,-43.945,-32.715,0.000
1709299115.469,-15.625,-33.203,-40.039,-22.461,0.000
1709299115.473,-16.602,-39.062,-29.785,-19.531,0.000
1709299115.477,-34.180,-39.062,-29.785,-22.461,0.000
1709299115.481,-48.340,-39.062,-33.691,-38.574,0.000
1709299115.485,-42.480,-44.434,-31.738,-38.574,0.000
1709299115.489,-37.109,-40.527,-29.297,-21.973,0.000
1709299115.493,-27.832,-32.227,-28.320,-15.137,0.000
1709299115.497,-20.996,-34.180,-24.902,-20.020,0.000
1709299115.501,-36.133,-44.434,-26.855,-32.715,0.000
1709299115.504,-41.504,-44.922,-34.180,-27.344,0.000
1709299115.508,-28.320,-34.668,-24.414,-10.742,0.000
1709299115.512,-19.043,-37.598,-21.973,-2.930,0.000
1709299115.516,-29.785,-37.598,-38.086,-20.996,0.000
1709299115.520,-40.039,-30.762,-34.180,-39.062,0.000
1709299115.524,-33.691,-32.227,-24.414,-25.879,0.000
1709299115.528,-23.438,-38.574,-27.344,-13.672,0.000
1709299115.532,-19.531,-37.598,-27.832,-18.555,0.000
1709299115.536,-31.250,-31.738,-32.715,-33.691,0.000
1709299115.540,-41.504,-31.250,-29.297,-42.480,0.000
1709299115.544,-40.527,-31.250,-20.996,-45.898,0.000
1709299115.547,-30.273,-29.785,-27.832,-34.668,0.000
1709299115.551,-22.461,-35.645,-33.691,-23.438,0.000
1709299115.555,-32.227,-41.016,-32.227,-33.691,0.000
1709299115.559,-40.527,-33.691,-35.156,-54.199,0.000
1709299115.563,-36.133,-29.785,-36.133,-56.641,0.000
1709299115.567,-28.320,-33.691,-34.668,-39.062,0.000
1709299115.571,-22.949,-32.715,-32.227,-35.156,0.000
1709299115.575,-22.461,-25.879,-28.320,-38.574,0.000
1709299115.579,-36.133,-34.668,-33.203,-46.875,0.000
1709299115.583,-43.945,-33.691,-35.645,-47.852,0.000
1709299115.587,-33.691,-32.227,-30.762,-37.598,0.000
1709299115.590,-26.855,-39.062,-28.320,-30.762,0.000
1709299115.594,-33.691,-41.992,-28.809,-33.203,0.000
1709299115.598,-49.316,-48.828,-28.320,-45.898,0.000
1709299115.602,-51.270,-40.527,-33.691,-49.805,0.000
1709299115.606,-40.039,-37.598,-44.434,-41.992,0.000
1709299115.610,-22.949,-46.387,-36.621,-20.020,0.000
1709299115.614,-25.391,-43.945,-34.180,-16.602,0.000
1709299115.618,-37.598,-34.668,-39.062,-34.180,0.000
1709299115.622,-40.039,-37.598,-29.785,-40.039,0.000
1709299115.626,-33.203,-38.086,-30.762,-36.621,0.000
1709299115.629,0.000,-31.738,0.000,-19.043,0.000
1709299115.633,0.000,-26.855,0.000,-13.672,0.000
1709299115.637,0.000,-25.879,0.000,-29.785,0.000
1709299115.641,0.000,-34.668,0.000,-45.898,0.000
1709299115.645,0.000,-37.109,0.000,-38.574,0.000
1709299115.649,0.000,-41.016,0.000,-18.066,0.000
1709299115.653,0.000,-43.457,0.000,-21.973,0.000
1709299115.657,0.000,-35.645,0.000,-37.109,0.000
1709299115.661,0.000,-31.738,0.000,-49.316,0.000
1709299115.665,0.000,-35.156,0.000,-54.688,0.000
1709299115.669,0.000,-32.227,0.000,-43.945,0.000
1709299115.672,0.000,-28.320,0.000,-37.109,0.000
1709299115.676,-41.504,-30.273,-39.551,-43.457,0.000
1709299115.680,-57.617,-42.969,-43.457,-54.688,0.000
1709299115.684,-57.617,-49.805,-35.156,-52.734,0.000
1709299115.688,-50.781,-39.062,-36.133,-40.527,0.000
1709299115.692,-43.945,-35.645,-37.598,-33.691,0.000
1709299115.696,-51.270,-38.086,-37.109,-46.387,0.000
1709299115.700,-63.965,-42.969,-43.945,-59.570,0.000
1709299115.704,-63.477,-45.898,-39.062,-54.199,0.000
1709299115.708,-50.293,-40.527,-31.738,-44.922,0.000
1709299115.711,-42.480,-43.457,-34.180,-42.480,0.000
1709299115.715,-47.363,-50.781,-41.016,-51.758,0.000
1709299115.719,-50.293,-41.504,-40.039,-55.664,0.000
1709299115.723,-52.246,-30.762,-30.273,-44.922,0.000
1709299115.727,-44.434,-38.574,-35.156,-39.551,0.000
1709299115.731,-34.668,-39.062,-36.621,-36.621,0.000
1709299115.735,-45.898,-26.367,-29.785,-41.016,0.000
1709299115.739,-57.617,-33.691,-21.484,-50.781,0.000
1709299115.743,-60.059,-47.363,-24.414,-49.805,0.000
1709299115.747,-50.781,-47.852,-37.109,-32.715,0.000
1709299115.750,-35.156,-40.527,-38.086,-25.391,0.000
1709299115.754,-38.574,-37.109,-31.250,-36.133,0.000
1709299115.758,-52.246,-36.133,-32.715,-47.363,0.000
1709299115.762,-55.176,-34.180,-46.387,-51.270,0.000
1709299115.766,-48.340,-36.133,-52.734,-41.504,0.000
1709299115.770,-30.762,-39.551,-42.969,-23.438,0.000
1709299115.774,-22.461,-32.715,-34.180,-25.879,0.000
1709299115.778,-34.668,-31.738,-35.645,-35.645,0.000
1709299115.782,-43.457,-32.715,-37.109,-37.109,0.000
1709299115.786,-33.691,-35.645,-39.062,-36.133,0.000
1709299115.789,-21.484,-43.457,-52.246,-25.391,0.000
1709299115.793,-21.973,-38.574,-48.828,-18.066,0.000
1709299115.797,-35.645,-32.227,-36.621,-39.062,0.000
1709299115.801,-40.039,-42.480,-38.086,-56.152,0.000
1709299115.805,-32.715,-41.504,-43.457,-41.992,0.000
1709299115.809,-27.344,-33.203,-47.363,-29.785,0.000
1709299115.813,-19.043,-29.297,-40.039,-30.762,0.000
1709299115.817,-24.414,-29.785,-34.668,-33.691,0.000
1709299115.821,-39.551,-30.273,-40.527,-36.621,0.000
1709299115.825,-41.016,-33.203,-42.480,-31.738,0.000
1709299115.829,-31.738,-32.715,-34.180,-25.879,0.000
1709299115.833,-30.273,-40.039,-34.180,-26.855,0.000
1709299115.837,-41.504,-49.316,-38.574,-30.273,0.000
1709299115.840,-56.152,-41.992,-40.039,-46.875,0.000
1709299115.844,-57.617,-38.574,-45.410,-49.805,0.000
1709299115.848,-44.434,-39.062,-43.945,-32.715,0.000
1709299115.852,-41.504,-38.086,-33.203,-24.902,0.000
1709299115.856,-48.340,-33.691,-34.180,-41.016,0.000
1709299115.860,-56.641,-30.762,-41.992,-49.805,0.000
1709299115.864,-55.176,-39.062,-38.086,-41.992,0.000
1709299115.868,-41.016,-36.621,-40.039,-29.785,0.000
1709299115.872,-29.785,-31.250,-36.133,-17.090,0.000
1709299115.876,-26.855,-32.227,-29.785,-15.137,0.000
1709299115.880,-33.203,-37.109,-31.250,-33.203,0.000
1709299115.883,-39.551,-41.016,-34.180,-43.457,0.000
1709299115.887,-35.156,-39.062,-45.410,-33.203,0.000
1709299115.891,-25.391,-37.109,-42.480,-26.367,0.000
1709299115.895,-26.855,-30.762,-34.180,-29.785,0.000
1709299115.899,-36.133,-30.762,-36.621,-43.945,0.000
1709299115.903,-41.504,-33.691,-28.809,-46.387,0.000
1709299115.907,-28.320,-35.156,-31.738,-31.738,0.000
1709299115.911,-18.555,-42.969,-36.133,-17.090,0.000
1709299115.915,-25.391,-42.480,-33.203,-17.090,0.000
1709299115.919,-41.504,-37.109,-38.086,-47.852,0.000
1709299115.923,-54.199,-45.410,-34.668,-63.477,0.000
1709299115.926,-49.805,-58.594,-39.551,-56.152,0.000
1709299115.930,-39.062,-47.852,-42.969,-50.781,0.000
1709299115.934,-40.527,-35.156,-35.156,-50.781,0.000
1709299115.938,-48.828,-43.457,-35.156,-56.641,0.000
1709299115.942,-59.570,-49.316,-34.180,-60.547,0.000
1709299115.946,-59.570,-49.805,-40.527,-52.734,0.000
1709299115.950,-46.387,-52.246,-41.016,-43.945,0.000
1709299115.954,-46.387,-41.504,-39.551,-46.387,0.000
1709299115.958,-58.594,-43.945,-42.969,-53.711,0.000
1709299115.962,-61.523,-53.223,-32.715,-54.688,0.000
1709299115.966,-54.688,-41.504,-32.227,-46.875,0.000
1709299115.969,-45.410,-39.062,-37.109,-36.621,0.000
1709299115.973,-44.434,-53.711,-37.109,-36.621,0.000
1709299115.977,-55.664,-48.828,-40.527,-41.504,0.000
1709299115.981,-60.059,-42.969,-44.434,-48.828,0.000
1709299115.985,-53.223,-43.945,-41.016,-45.898,0.000
1709299115.989,-53.711,-41.504,-41.504,-31.738,0.000
1709299115.993,-45.898,-46.875,-43.457,-29.297,0.000
1709299115.997,-44.922,-46.387,-43.945,-38.574,0.000
1709299116.001,-49.805,-41.504,-43.457,-48.828,0.000
1709299116.005,-41.992,-31.738,-33.203,-39.062,0.000
1709299116.008,-28.809,-35.645,-31.250,-24.414,0.000
1709299116.012,-22.461,-45.898,-35.645,-18.555,0.000
1709299116.016,-32.227,-41.016,-40.039,-33.203,0.000
1709299116.020,-42.969,-43.945,-47.852,-50.293,0.000
1709299116.024,-45.410,-43.945,-38.086,-46.387,0.000
1709299116.028,-35.156,-33.203,-24.902,-26.855,0.000
1709299116.032,-26.855,-37.598,-27.344,-15.137,0.000
1709299116.036,-35.156,-45.410,-36.133,-31.738,0.000
1709299116.040,-49.316,-40.527,-42.969,-52.734,0.000
1709299116.044,-49.316,-29.785,-39.062,-50.781,0.000
1709299116.048,-35.156,-33.203,-38.574,-36.621,0.000
1709299116.051,-29.297,-38.574,-40.527,-31.250,0.000
1709299116.055,-28.809,-33.203,-35.645,-32.715,0.000
1709299116.059,-36.621,-39.062,-39.551,-38.574,0.000
1709299116.063,-46.875,-42.480,-33.691,-44.434,0.000
1709299116.067,-40.039,-40.527,-27.344,-37.109,0.000
1709299116.071,-37.598,-41.992,-31.738,-30.273,0.000
1709299116.075,-38.086,-42.480,-31.738,-31.738,0.000
1709299116.079,-42.480,-43.945,-34.180,-36.133,0.000
1709299116.083,-48.340,-42.480,-40.039,-45.898,0.000
1709299116.087,-38.086,-38.574,-32.227,-30.273,0.000
1709299116.090,-24.902,-40.527,-27.832,-14.160,0.000
1709299116.094,-20.508,-42.480,-23.438,-15.137,0.000
1709299116.098,-29.297,-32.715,-22.949,-31.250,0.000
1709299116.102,-44.922,-33.691,-29.297,-48.828,0.000
1709299116.106,-45.898,-32.227,-27.344,-38.086,0.000
1709299116.110,-32.227,-25.391,-34.180,-21.973,0.000
1709299116.114,-34.180,-36.133,-38.574,-24.414,0.000
1709299116.118,-47.363,-49.805,-39.062,-35.645,0.000
1709299116.122,-53.711,-43.945,-38.086,-42.969,0.000
1709299116.126,-50.293,-29.785,-28.809,-42.480,0.000
1709299116.129,-37.598,-26.367,-31.738,-25.879,0.000
1709299116.133,-30.762,-31.250,-27.344,-8.789,0.000
1709299116.137,-41.504,-37.598,-24.414,-9.766,0.000
1709299116.141,-47.852,-35.645,-37.598,-26.855,0.000
1709299116.145,-47.852,-34.180,-35.645,-36.133,0.000
1709299116.149,-45.898,-37.598,-33.203,-26.367,0.000
1709299116.153,-43.945,-41.992,-36.621,-25.879,0.000
1709299116.157,-43.945,-43.945,-29.297,-34.668,0.000
1709299116.161,-47.852,-34.180,-24.902,-43.457,0.000
1709299116.164,-43.457,-20.508,-23.438,-42.480,0.000
1709299116.168,-25.879,-22.461,-16.113,-23.438,0.000
1709299116.172,-17.090,-27.344,-26.855,-26.855,0.000
1709299116.176,-21.973,-39.062,-40.039,-44.922,0.000
1709299116.180,-29.785,-46.875,-36.621,-50.293,0.000
1709299116.184,-36.621,-39.551,-43.457,-42.969,0.000
1709299116.188,-28.809,-34.180,-45.410,-37.109,0.000
1709299116.192,-23.438,-37.109,-41.992,-37.598,0.000
1709299116.196,-36.621,-44.922,-46.387,-47.852,0.000
1709299116.200,-47.363,-44.922,-45.410,-59.082,0.000
1709299116.204,-52.734,-34.668,-43.457,-55.664,0.000
1709299116.208,-44.434,-34.668,-40.527,-43.945,0.000
1709299116.211,-41.016,-47.363,-49.805,-35.645,0.000
1709299116.215,-49.316,-48.340,-58.594,-40.039,0.000
1709299116.219,-62.500,-33.203,-42.969,-54.199,0.000
1709299116.223,-66.895,-34.668,-26.367,-59.570,0.000
1709299116.227,-53.711,-42.480,-23.926,-41.992,0.000
1709299116.231,-44.434,-39.062,-34.180,-33.691,0.000
1709299116.235,-42.480,-31.738,-44.922,-42.480,0.000
1709299116.239,-45.410,-32.715,-42.480,-47.363,0.000
1709299116.243,-49.805,-41.504,-39.551,-50.293,0.000
1709299116.247,-42.969,-45.898,-39.062,-48.340,0.000
1709299116.251,-31.250,-48.828,-40.527,-35.156,0.000
1709299116.254,-30.273,-47.363,-40.527,-29.785,0.000
1709299116.258,-44.922,-41.504,-38.574,-46.875,0.000
1709299116.262,-55.176,-37.598,-36.133,-52.734,0.000
1709299116.266,-43.945,-42.480,-28.809,-37.598,0.000
1709299116.270,-27.344,-53.223,-27.832,-25.391,0.000
1709299116.274,-23.438,-46.875,-44.434,-24.902,0.000
1709299116.278,-31.738,-32.715,-43.945,-45.410,0.000
1709299116.282,-47.363,-35.156,-33.203,-56.152,0.000
1709299116.286,-43.945,-37.598,-37.109,-48.340,0.000
1709299116.290,-28.809,-32.227,-39.062,-39.062,0.000
1709299116.294,-24.902,-32.227,-35.645,-36.621,0.000
1709299116.297,-33.691,-40.527,-38.574,-49.805,0.000
1709299116.301,-37.109,-42.969,-31.738,-59.082,0.000
1709299116.305,-38.574,-44.922,-29.297,-52.734,0.000
1709299116.309,-38.574,-46.387,-35.645,-40.039,0.000
1709299116.313,-32.227,-39.062,-31.738,-41.016,0.000
1709299116.317,-37.109,-36.133,-30.273,-52.246,0.000
1709299116.321,-40.527,-31.250,-32.227,-53.223,0.000
1709299116.325,-36.133,-28.809,-38.574,-47.852,0.000
1709299116.329,-25.879,-35.645,-43.457,-40.039,0.000
1709299116.333,-21.973,-34.668,-40.527,-39.551,0.000
1709299116.336,-30.762,-34.180,-42.480,-51.758,0.000
1709299116.340,-33.203,-43.945,-47.852,-55.176,0.000
1709299116.344,-33.203,-45.898,-47.363,-39.551,0.000
1709299116.348,-23.926,-40.039,-32.715,-23.926,0.000
1709299116.352,-10.742,-24.902,-25.391,-15.137,0.000
1709299116.356,-21.973,-17.090,-27.344,-29.785,0.000
1709299116.360,-36.621,-29.297,-28.809,-43.945,0.000
1709299116.364,-35.156,-38.574,-31.250,-31.738,0.000
1709299116.368,-29.297,-41.504,-29.297,-24.902,0.000
1709299116.372,-34.180,-39.551,-38.574,-34.180,0.000
1709299116.376,-33.691,-32.227,-40.039,-39.551,0.000
1709299116.379,-34.180,-36.621,-36.133,-38.086,0.000
1709299116.383,-49.316,-41.992,-35.156,-43.457,0.000
1709299116.387,-43.945,-41.016,-31.250,-33.203,0.000
1709299116.391,-31.738,-37.109,-32.715,-24.414,0.000
1709299116.395,-33.203,-37.598,-39.062,-32.715,0.000
1709299116.399,-44.434,-44.922,-46.875,-45.410,0.000
1709299116.403,-52.734,-39.551,-43.945,-57.617,0.000
1709299116.407,-43.457,-36.133,-35.645,-44.922,0.000
1709299116.411,-37.109,-31.738,-33.203,-31.738,0.000
1709299116.415,-35.645,-38.574,-27.832,-43.457,0.000
1709299116.418,-45.898,-48.340,-30.762,-58.594,0.000
1709299116.422,-59.570,-47.852,-35.645,-66.406,0.000
1709299116.426,-50.781,-52.734,-31.250,-58.105,0.000
1709299116.430,-33.691,-48.828,-36.133,-42.969,0.000
1709299116.434,-29.785,-35.645,-37.109,-35.645,0.000
1709299116.438,-39.062,-35.156,-34.668,-50.293,0.000
1709299116.442,-45.898,-38.574,-34.180,-53.223,0.000
1709299116.446,-38.574,-38.086,-32.227,-35.156,0.000
1709299116.450,-28.809,-42.480,-33.203,-21.484,0.000
1709299116.454,-26.855,-51.758,-32.715,-5.859,0.000
1709299116.457,-37.109,-54.199,-37.598,-21.973,0.000
1709299116.461,-48.340,-48.340,-48.340,-42.969,0.000
1709299116.465,-49.316,-47.852,-46.875,-37.109,0.000
1709299116.469,-42.969,-38.574,-32.715,-25.879,0.000
1709299116.473,-39.551,-31.250,-25.879,-20.020,0.000
1709299116.477,-46.875,-33.203,-31.250,-33.203,0.000
1709299116.481,-58.105,-38.574,-33.691,-43.945,0.000
1709299116.485,-54.199,-40.039,-33.203,-34.668,0.000
1709299116.489,-44.434,-34.180,-36.621,-23.926,0.000
1709299116.493,-28.809,-53.223,-33.691,-21.484,0.000
1709299116.496,-30.273,-61.523,-22.461,-24.414,0.000
1709299116.500,-52.246,-37.598,-29.297,-40.527,0.000
1709299116.504,-48.828,-31.250,-39.551,-44.922,0.000
1709299116.508,-36.133,-38.086,-33.691,-33.691,0.000
1709299116.512,-36.133,-32.715,-32.715,-30.273,0.000
1709299116.516,-40.527,-30.273,-36.621,-41.992,0.000
1709299116.520,-48.340,-33.691,-34.668,-52.734,0.000
1709299116.524,-48.828,-35.156,-32.227,-47.363,0.000
1709299116.528,-30.762,-30.273,-29.785,-26.367,0.000
1709299116.532,-22.461,-29.785,-33.691,-19.531,0.000
1709299116.536,-30.273,-38.574,-32.227,-30.273,0.000
1709299116.540,-46.875,-58.594,-36.133,-46.875,0.000
1709299116.543,-53.711,-50.781,-41.504,-48.828,0.000
1709299116.547,-36.621,-33.691,-36.621,-36.621,0.000
1709299116.551,-23.438,-43.945,-37.598,-29.785,0.000
1709299116.555,-29.297,-44.434,-40.527,-41.504,0.000
1709299116.559,-48.828,-34.180,-38.574,-53.711,0.000
1709299116.563,-59.082,-30.273,-34.668,-50.293,0.000
1709299116.567,-52.734,-34.668,-31.250,-46.875,0.000
1709299116.571,-39.551,-41.992,-36.621,-48.828,0.000
1709299116.575,-38.574,-41.016,-40.039,-48.828,0.000
1709299116.579,-55.176,-49.316,-43.457,-54.688,0.000
1709299116.583,-60.547,-59.570,-47.363,-59.082,0.000
1709299116.586,-55.664,-57.129,-51.758,-51.758,0.000
1709299116.590,-47.852,-44.922,-51.270,-43.457,0.000
1709299116.594,-47.363,-34.668,-47.852,-44.434,0.000
1709299116.598,-56.152,-36.133,-42.969,-52.734,0.000
1709299116.602,-56.641,-35.156,-41.016,-49.316,0.000
1709299116.606,-51.270,-33.203,-39.551,-44.434,0.000
1709299116.610,-38.574,-31.738,-32.715,-32.227,0.000
1709299116.614,-31.738,-35.156,-33.203,-19.043,0.000
1709299116.618,-48.828,-45.898,-43.457,-29.297,0.000
1709299116.622,-68.848,-51.270,-41.504,-41.504,0.000
1709299116.626,-57.129,-50.781,-41.504,-40.527,0.000
1709299116.629,-37.598,-45.898,-42.480,-24.414,0.000
1709299116.633,-39.551,-40.039,-38.086,-18.555,0.000
1709299116.637,-39.062,-35.645,-38.574,-28.320,0.000
1709299116.641,-49.316,-37.598,-38.574,-38.574,0.000
1709299116.645,-53.711,-41.504,-34.180,-37.598,0.000
1709299116.649,-41.016,-37.598,-33.203,-19.043,0.000
1709299116.653,-35.156,-33.691,-37.109,-23.438,0.000
1709299116.657,-37.109,-31.738,-35.645,-35.645,0.000
1709299116.661,-48.828,-26.367,-36.621,-45.898,0.000
1709299116.665,-50.781,-23.926,-42.969,-48.340,0.000
1709299116.669,-37.598,-41.016,-40.039,-32.227,0.000
1709299116.672,-31.738,-41.504,-37.109,-21.973,0.000
1709299116.676,-39.551,-36.133,-37.598,-34.668,0.000
1709299116.680,-48.340,-41.992,-39.551,-48.340,0.000
1709299116.684,-49.316,-34.668,-38.086,-48.340,0.000
1709299116.688,-34.668,-31.250,-34.180,-35.156,0.000
1709299116.692,-31.250,-41.992,-43.457,-25.879,0.000
1709299116.696,-53.711,-42.480,-51.758,-44.434,0.000
1709299116.700,-62.012,-36.133,-48.340,-69.336,0.000
1709299116.704,-58.105,-42.480,-39.062,-71.777,0.000
1709299116.708,-49.316,-39.551,-41.504,-46.875,0.000
1709299116.712,-34.180,-34.668,-40.039,-30.273,0.000
1709299116.715,-34.180,-48.828,-37.598,-30.762,0.000
1709299116.719,-40.527,-48.340,-32.715,-33.691,0.000
1709299116.723,-39.062,-28.809,-27.832,-33.691,0.000
1709299116.727,-36.621,-34.668,-37.598,-28.320,0.000
1709299116.731,-26.367,-38.574,-40.039,-16.602,0.000
1709299116.735,-20.996,-33.691,-30.273,-12.207,0.000
1709299116.739,-41.016,-36.621,-35.156,-26.855,0.000
1709299116.743,-57.617,-31.250,-36.133,-42.480,0.000
1709299116.747,-48.828,-34.180,-23.438,-33.203,0.000
1709299116.751,-32.715,-33.691,-24.902,-17.090,0.000
1709299116.754,-32.227,-30.273,-31.738,-18.066,0.000
1709299116.758,-40.527,-37.109,-27.344,-32.227,0.000
1709299116.762,-47.363,-42.969,-26.855,-45.410,0.000
1709299116.766,-48.340,-41.992,-34.180,-37.598,0.000
1709299116.770,-27.832,-35.156,-31.250,-29.297,0.000
1709299116.774,-21.484,-31.250,-23.926,-40.527,0.000
1709299116.778,-38.086,-36.133,-23.926,-42.969,0.000
1709299116.782,-47.852,-43.945,-29.785,-37.109,0.000
1709299116.786,-48.828,-41.016,-26.855,-41.016,0.000
1709299116.790,-33.203,-41.504,-24.414,-38.086,0.000
1709299116.794,-23.438,-40.039,-24.414,-30.762,0.000
1709299116.797,-32.715,-30.762,-22.461,-42.480,0.000
1709299116.801,-41.504,-40.039,-31.250,-56.641,0.000
1709299116.805,-40.527,-44.922,-41.504,-52.734,0.000
1709299116.809,-24.902,-28.809,-49.316,-39.551,0.000
1709299116.813,-14.160,-25.391,-49.805,-35.156,0.000
1709299116.817,-28.809,-31.250,-38.086,-47.363,0.000
1709299116.821,-41.016,-32.715,-31.738,-55.664,0.000
1709299116.825,-35.645,-33.203,-31.250,-42.480,0.000
1709299116.829,-31.250,-39.062,-34.180,-21.973,0.000
1709299116.833,-26.855,-38.574,-29.785,-19.531,0.000
1709299116.836,-23.926,-36.621,-20.508,-29.297,0.000
1709299116.840,-32.715,-39.551,-27.832,-36.133,0.000
1709299116.844,-38.574,-41.016,-32.227,-36.621,0.000
1709299116.848,-28.809,-32.715,-31.250,-31.250,0.000
1709299116.852,-26.855,-37.109,-31.738,-25.391,0.000
1709299116.856,-33.691,-48.828,-26.855,-26.855,0.000
1709299116.860,-43.945,-41.016,-28.809,-42.969,0.000
1709299116.864,-45.410,-32.227,-30.762,-45.898,0.000
1709299116.868,-44.434,-45.898,-34.668,-31.738,0.000
1709299116.872,-36.621,-44.434,-29.785,-10.742,0.000
1709299116.875,-34.180,-35.645,-29.297,-18.066,0.000
1709299116.879,-47.363,-49.316,-40.527,-50.293,0.000
1709299116.883,-45.410,-51.758,-46.875,-52.734,0.000
1709299116.887,-32.715,-45.898,-41.016,-35.156,0.000
1709299116.891,-22.949,-36.133,-29.297,-30.273,0.000
1709299116.895,-23.926,-35.156,-29.785,-37.598,0.000
1709299116.899,-34.180,-47.852,-33.203,-45.898,0.000
1709299116.903,-40.039,-41.016,-31.250,-42.969,0.000
1709299116.907,-38.574,-35.156,-29.297,-37.109,0.000
1709299116.911,-30.762,-43.945,-35.156,-37.109,0.000
1709299116.914,-32.227,-40.039,-35.645,-37.598,0.000
1709299116.918,-33.691,-37.109,-28.809,-37.598,0.000
1709299116.922,-33.203,-49.805,-36.621,-46.875,0.000
1709299116.926,-29.297,-43.457,-41.992,-41.016,0.000
1709299116.930,-21.484,-35.645,-35.156,-22.461,0.000
1709299116.934,-21.973,-36.621,-38.574,-25.879,0.000
1709299116.938,-27.832,-33.203,-37.109,-44.922,0.000
1709299116.942,-39.551,-34.180,-29.297,-46.875,0.000
1709299116.946,-41.992,-33.203,-31.250,-39.551,0.000
1709299116.950,-26.855,-32.715,-28.320,-29.785,0.000
1709299116.954,-25.391,-37.109,-29.297,-29.785,0.000
1709299116.957,-34.668,-34.668,-32.715,-37.598,0.000
1709299116.961,-44.922,-41.992,-33.203,-38.574,0.000
1709299116.965,-45.898,-48.340,-36.133,-41.504,0.000
1709299116.969,-32.715,-39.551,-41.504,-34.180,0.000
1709299116.973,-24.902,-30.273,-33.691,-20.508,0.000
1709299116.977,-33.691,-32.227,-34.180,-21.973,0.000
1709299116.981,-46.875,-43.457,-36.621,-44.434,0.000
1709299116.985,-52.246,-47.363,-32.715,-53.711,0.000
1709299116.989,-43.457,-43.457,-34.180,-33.203,0.000
1709299116.993,-31.250,-43.457,-38.574,-26.367,0.000
1709299116.997,-39.062,-38.574,-39.062,-45.898,0.000
1709299117.000,-52.246,-39.551,-34.668,-62.988,0.000
1709299117.004,-45.898,-47.363,-31.250,-58.105,0.000
1709299117.008,-39.062,-43.945,-40.527,-44.922,0.000
1709299117.012,-29.785,-36.621,-48.828,-34.668,0.000
1709299117.016,-25.879,-32.715,-41.504,-34.668,0.000
1709299117.020,-36.621,-31.738,-40.039,-42.480,0.000
1709299117.024,-43.457,-40.527,-40.039,-34.180,0.000
1709299117.028,-31.738,-43.457,-33.203,-27.344,0.000
1709299117.032,-23.926,-39.551,-34.668,-24.414,0.000
1709299117.036,-32.227,-36.621,-33.203,-32.227,0.000
1709299117.040,-46.387,-39.551,-33.691,-49.805,0.000
1709299117.043,-53.711,-41.504,-41.992,-50.781,0.000
1709299117.047,-43.457,-47.852,-44.434,-42.480,0.000
1709299117.051,-33.691,-44.922,-41.992,-37.109,0.000
1709299117.055,-34.180,-32.715,-38.086,-45.410,0.000
1709299117.059,-47.852,-36.621,-41.504,-63.965,0.000
1709299117.063,-56.641,-42.969,-42.480,-69.336,0.000
1709299117.067,-48.828,-37.109,-36.621,-47.363,0.000
1709299117.071,-41.016,-35.156,-41.016,-31.250,0.000
1709299117.075,-41.992,-39.551,-41.504,-38.574,0.000
1709299117.079,-47.363,-38.574,-29.785,-46.875,0.000
1709299117.083,-53.223,-32.227,-28.809,-51.758,0.000
1709299117.086,-47.363,-34.180,-36.133,-48.340,0.000
1709299117.090,-37.598,-48.828,-33.203,-35.645,0.000
1709299117.094,-33.691,-50.293,-30.762,-33.691,0.000
1709299117.098,-36.621,-41.992,-37.109,-49.805,0.000
1709299117.102,-43.457,-42.969,-39.062,-56.641,0.000
1709299117.106,-44.434,-40.527,-31.738,-47.852,0.000
1709299117.110,-35.645,-36.133,-31.250,-33.203,0.000
1709299117.114,-27.832,-37.109,-27.344,-25.391,0.000
1709299117.118,-38.574,-38.086,-25.391,-41.992,0.000
1709299117.122,-51.758,-39.062,-29.785,-53.711,0.000
1709299117.125,-48.340,-41.016,-34.668,-48.828,0.000
1709299117.129,-33.203,-53.711,-39.062,-36.133,0.000
1709299117.133,-24.414,-52.734,-34.668,-33.691,0.000
1709299117.137,-35.156,-43.457,-30.273,-43.945,0.000
1709299117.141,-48.828,-35.645,-37.598,-47.363,0.000
1709299117.145,-46.875,-31.250,-43.457,-49.316,0.000
1709299117.149,-32.227,-34.668,-38.574,-35.645,0.000
1709299117.153,-19.531,-36.133,-34.180,-23.438,0.000
1709299117.157,-28.320,-39.062,-34.668,-28.320,0.000
1709299117.161,-43.945,-40.527,-34.668,-42.480,0.000
1709299117.165,-40.527,-40.039,-35.156,-43.945,0.000
1709299117.168,-30.273,-47.363,-30.273,-26.367,0.000
1709299117.172,-32.715,-51.758,-35.645,-20.996,0.000
1709299117.176,-39.551,-41.504,-45.898,-34.180,0.000
1709299117.180,-56.641,-30.762,-48.340,-56.152,0.000
1709299117.184,-58.594,-41.992,-44.922,-56.152,0.000
1709299117.188,-48.828,-47.363,-40.527,-36.621,0.000
1709299117.192,-48.828,-40.527,-45.410,-32.227,0.000
1709299117.196,-51.270,-42.480,-39.551,-43.457,0.000
1709299117.200,-57.129,-45.410,-29.785,-48.828,0.000
1709299117.204,-63.477,-45.898,-34.668,-34.180,0.000
1709299117.208,-55.664,-52.246,-30.762,-25.391,0.000
1709299117.212,-48.340,-54.688,-25.879,-24.902,0.000
1709299117.215,-52.246,-45.898,-32.227,-33.203,0.000
1709299117.219,-61.523,-37.109,-37.598,-44.434,0.000
1709299117.223,-62.012,-34.668,-43.457,-45.410,0.000
1709299117.227,-52.734,-42.480,-43.457,-36.621,0.000
1709299117.231,-39.551,-46.875,-39.062,-22.949,0.000
1709299117.235,-41.504,-39.062,-37.598,-23.438,0.000
1709299117.239,-56.641,-31.250,-34.668,-36.621,0.000
1709299117.243,-59.570,-32.715,-36.133,-37.109,0.000
1709299117.247,-48.340,-34.668,-36.133,-27.344,0.000
1709299117.251,-36.621,-40.039,-31.738,-21.973,0.000
1709299117.254,-33.203,-43.945,-30.762,-20.996,0.000
1709299117.258,-38.574,-39.551,-38.086,-35.156,0.000
1709299117.262,-49.316,-31.738,-43.457,-44.922,0.000
1709299117.266,-45.410,-24.902,-44.434,-34.180,0.000
1709299117.270,-30.273,-30.273,-40.039,-26.367,0.000
1709299117.274,-21.484,-27.832,-27.344,-21.973,0.000
1709299117.278,-35.156,-24.902,-32.715,-28.809,0.000
1709299117.282,-47.852,-28.809,-42.969,-40.527,0.000
1709299117.286,-38.086,-29.785,-34.668,-33.691,0.000
1709299117.289,-20.508,-38.086,-31.250,-11.719,0.000
1709299117.293,-15.137,-43.945,-34.668,-0.488,0.000
1709299117.297,-26.855,-39.551,-38.086,-20.996,0.000
1709299117.301,-30.762,-29.785,-39.551,-29.785,0.000
1709299117.305,-35.645,-22.461,-34.668,-27.832,0.000
1709299117.309,-31.738,-28.320,-37.598,-23.438,0.000
1709299117.313,-31.250,-34.180,-47.363,-18.066,0.000
1709299117.317,-40.039,-41.504,-35.156,-30.273,0.000
1709299117.321,-45.898,-45.898,-25.391,-45.410,0.000
1709299117.325,-49.805,-42.969,-31.738,-41.992,0.000
1709299117.329,-39.062,-40.039,-35.645,-32.715,0.000
1709299117.333,-34.668,-48.828,-42.969,-35.645,0.000
1709299117.336,-41.504,-53.711,-41.016,-38.086,0.000
1709299117.340,-53.711,-43.457,-30.762,-48.828,0.000
1709299117.344,-61.523,-35.645,-35.156,-56.641,0.000
1709299117.348,-47.363,-35.645,-37.109,-41.016,0.000
1709299117.352,-31.738,-35.645,-27.344,-24.414,0.000
1709299117.356,-36.133,-40.527,-27.344,-27.832,0.000
1709299117.360,-50.293,-42.969,-35.156,-41.992,0.000
1709299117.364,-52.246,-40.039,-39.062,-48.340,0.000
1709299117.368,-39.551,-36.621,-35.645,-37.598,0.000
1709299117.372,-25.391,-35.645,-31.738,-24.414,0.000
1709299117.376,-26.367,-39.062,-34.180,-27.832,0.000
1709299117.379,-37.109,-39.062,-31.738,-43.457,0.000
1709299117.383,-41.016,-39.551,-33.203,-49.805,0.000
1709299117.387,-29.297,-29.297,-42.969,-35.156,0.000
1709299117.391,-15.137,-25.391,-39.551,-20.508,0.000
1709299117.395,-12.695,-30.762,-24.414,-19.531,0.000
1709299117.399,-23.926,-32.227,-26.367,-25.391,0.000
1709299117.403,-41.504,-32.715,-37.109,-42.969,0.000
1709299117.407,-39.551,-33.203,-38.574,-36.133,0.000
1709299117.411,-25.879,-36.621,-36.133,-14.648,0.000
1709299117.415,-26.855,-33.203,-36.621,-16.602,0.000
1709299117.419,-36.133,-36.133,-35.645,-34.180,0.000
1709299117.423,-54.688,-46.387,-35.645,-57.617,0.000
1709299117.426,-53.223,-43.945,-36.621,-53.711,0.000
1709299117.430,-36.133,-40.039,-34.180,-30.762,0.000
1709299117.434,-38.574,-38.086,-39.551,-34.668,0.000
1709299117.438,-47.852,-34.180,-42.480,-49.316,0.000
1709299117.442,-49.805,-35.156,-35.156,-42.480,0.000
1709299117.446,-40.039,-35.156,-37.109,-31.738,0.000
1709299117.450,-27.832,-38.086,-44.434,-28.320,0.000
1709299117.454,-12.207,-35.156,-37.109,-16.602,0.000
1709299117.458,-17.578,-26.367,-40.039,-17.578,0.000
1709299117.462,-35.645,-37.109,-39.062,-35.156,0.000
1709299117.466,-38.086,-41.992,-32.227,-36.133,0.000
1709299117.469,-33.691,-40.039,-36.621,-26.367,0.000
1709299117.473,-34.180,-41.016,-38.086,-29.297,0.000
1709299117.477,-39.551,-36.621,-33.691,-42.480,0.000
1709299117.481,-49.316,-42.969,-39.551,-49.805,0.000
1709299117.485,-58.105,-50.781,-36.621,-43.457,0.000
1709299117.489,-50.293,-45.410,-30.762,-32.715,0.000
1709299117.493,-43.945,-44.434,-33.691,-29.297,0.000
1709299117.497,-55.664,-42.969,-40.527,-46.387,0.000
1709299117.501,-61.523,-46.387,-41.016,-60.059,0.000
1709299117.505,-62.988,-47.363,-40.039,-51.758,0.000
1709299117.508,-53.711,-33.691,-37.598,-43.457,0.000
1709299117.512,-46.387,-39.062,-42.969,-44.434,0.000
1709299117.516,-51.758,-44.434,-39.062,-55.176,0.000
1709299117.520,-66.895,-37.598,-38.086,-66.895,0.000
1709299117.524,-65.430,-44.434,-44.922,-57.617,0.000
1709299117.528,-46.387,-51.758,-40.527,-46.387,0.000
1709299117.532,-33.203,-38.086,-38.574,-34.668,0.000
1709299117.536,-31.738,-30.762,-35.645,-31.738,0.000
1709299117.540,-36.133,-31.738,-30.762,-44.434,0.000
1709299117.544,-42.969,-37.598,-35.645,-48.340,0.000
1709299117.548,-32.715,-40.039,-37.109,-34.180,0.000
1709299117.551,-18.555,-33.691,-30.273,-22.461,0.000
1709299117.555,-24.902,-32.227,-33.691,-28.809,0.000
1709299117.559,-33.691,-37.598,-37.109,-38.574,0.000
1709299117.563,-41.504,-41.504,-33.691,-40.527,0.000
1709299117.567,-36.621,-39.062,-32.227,-27.832,0.000
1709299117.571,-25.879,-43.945,-30.762,-21.484,0.000
1709299117.575,-32.715,-49.316,-31.738,-27.832,0.000
1709299117.579,-41.504,-41.992,-37.109,-25.879,0.000
1709299117.583,-44.434,-38.086,-36.133,-33.691,0.000
1709299117.587,-39.551,-38.574,-31.738,-26.367,0.000
1709299117.590,-26.367,-44.434,-39.551,-16.602,0.000
1709299117.594,-22.461,-47.363,-34.668,-16.602,0.000
1709299117.598,-33.691,-38.086,-30.762,-20.508,0.000
1709299117.602,-42.969,-36.133,-32.227,-31.250,0.000
1709299117.606,-40.527,-42.969,-31.250,-33.691,0.000
1709299117.610,-28.809,-43.457,-29.785,-17.578,0.000
1709299117.614,-26.855,-34.180,-29.297,-11.230,0.000
1709299117.618,-36.621,-26.855,-31.250,-25.879,0.000
1709299117.622,-44.434,-23.926,-28.809,-28.809,0.000
1709299117.626,-49.316,-30.762,-27.344,-23.926,0.000
1709299117.629,-40.039,-31.250,-26.855,-24.414,0.000
1709299117.633,-32.715,-31.250,-32.715,-22.461,0.000
1709299117.637,-41.992,-35.156,-39.062,-35.156,0.000
1709299117.641,-51.758,-28.320,-34.668,-48.828,0.000
1709299117.645,-51.758,-30.762,-34.668,-43.945,0.000
1709299117.649,-28.809,-39.062,-24.902,-26.855,0.000
1709299117.653,-15.625,-41.016,-20.020,-19.043,0.000
1709299117.657,-28.320,-41.992,-27.832,-33.691,0.000
1709299117.661,-40.527,-42.480,-33.203,-49.316,0.000
1709299117.664,-37.109,-38.574,-41.992,-49.805,0.000
1709299117.668,-23.926,-37.598,-41.992,-33.203,0.000
1709299117.672,-16.113,-39.551,-34.668,-27.832,0.000
1709299117.676,-19.531,-33.203,-39.551,-41.016,0.000
1709299117.680,-31.250,-35.645,-40.039,-43.457,0.000
1709299117.684,-39.062,-37.598,-34.180,-33.203,0.000
1709299117.688,-36.133,-38.086,-32.715,-23.926,0.000
1709299117.692,-31.738,-46.875,-32.715,-24.414,0.000
1709299117.696,-32.227,-46.875,-29.785,-28.809,0.000
1709299117.700,-35.645,-34.668,-25.391,-25.879,0.000
1709299117.704,-46.875,-29.785,-29.297,-28.809,0.000
1709299117.708,-41.504,-33.691,-37.109,-24.414,0.000
1709299117.711,-27.832,-38.574,-34.180,-10.254,0.000
1709299117.715,-35.645,-42.969,-28.809,-24.414,0.000
1709299117.719,-44.922,-41.016,-32.227,-43.457,0.000
1709299117.723,-45.898,-38.086,-32.715,-43.457,0.000
1709299117.727,-36.621,-42.969,-31.250,-23.438,0.000
1709299117.731,-26.855,-38.574,-35.645,-15.625,0.000
1709299117.735,-34.180,-35.156,-43.945,-31.738,0.000
1709299117.739,0.000,-47.363,0.000,-46.387,0.000
1709299117.743,0.000,-54.199,0.000,-51.758,0.000
1709299117.747,0.000,-46.875,0.000,-43.945,0.000
1709299117.751,0.000,-36.621,0.000,-32.715,0.000
1709299117.754,0.000,-36.133,0.000,-36.621,0.000
1709299117.758,0.000,-38.086,0.000,-48.828,0.000
1709299117.762,0.000,-43.457,0.000,-56.152,0.000
1709299117.766,0.000,-45.898,0.000,-44.434,0.000
1709299117.770,0.000,-41.016,0.000,-27.832,0.000
1709299117.774,0.000,-38.086,0.000,-20.508,0.000
1709299117.778,0.000,-38.086,0.000,-40.039,0.000
1709299117.782,0.000,-40.039,0.000,-67.383,0.000
1709299117.786,-40.527,-33.691,-32.715,-56.152,0.000
1709299117.790,-32.227,-25.879,-28.320,-29.785,0.000
1709299117.794,-22.949,-24.902,-29.785,-24.902,0.000
1709299117.797,-29.785,-31.250,-37.598,-35.645,0.000
1709299117.801,-53.711,-41.992,-45.410,-53.223,0.000
1709299117.805,-56.152,-48.828,-42.480,-50.781,0.000
1709299117.809,-46.875,-49.805,-38.086,-43.457,0.000
1709299117.813,-39.062,-47.852,-39.062,-39.551,0.000
1709299117.817,-39.062,-42.480,-33.691,-37.109,0.000
1709299117.821,-43.945,-46.875,-30.273,-47.363,0.000
1709299117.825,-38.086,-52.246,-33.203,-52.246,0.000
1709299117.829,-27.344,-34.668,-37.109,-41.016,0.000
1709299117.833,-22.949,-23.926,-37.109,-24.414,0.000
1709299117.837,-34.668,-30.762,-40.527,-33.691,0.000
1709299117.840,-48.828,-36.133,-44.922,-51.270,0.000
1709299117.844,-51.758,-34.180,-35.156,-46.387,0.000
1709299117.848,-37.109,-34.180,-32.715,-31.738,0.000
1709299117.852,-26.855,-42.480,-38.574,-21.973,0.000
1709299117.856,-30.762,-42.480,-35.645,-31.738,0.000
1709299117.860,-41.016,-31.738,-38.574,-46.387,0.000
1709299117.864,-45.410,-31.250,-42.969,-35.156,0.000
1709299117.868,-33.691,-38.574,-39.062,-22.461,0.000
1709299117.872,-24.902,-37.598,-38.086,-21.484,0.000
1709299117.876,-29.297,-30.273,-38.086,-27.344,0.000
1709299117.879,-37.109,-25.879,-28.809,-39.062,0.000
1709299117.883,-42.969,-30.273,-36.621,-46.387,0.000
1709299117.887,-34.180,-29.785,-36.621,-39.062,0.000
1709299117.891,-25.879,-31.250,-30.273,-29.297,0.000
1709299117.895,-28.320,-41.992,-32.715,-32.227,0.000
1709299117.899,-40.039,-41.016,-34.668,-44.434,0.000
1709299117.903,-43.457,-29.297,-33.203,-46.387,0.000
1709299117.907,-30.762,-35.156,-31.738,-29.785,0.000
1709299117.911,-14.160,-47.852,-33.691,-25.391,0.000
1709299117.915,-16.602,-34.180,-39.551,-39.551,0.000
1709299117.919,-28.809,-24.902,-36.133,-47.852,0.000
1709299117.922,-35.156,-22.949,-31.250,-50.781,0.000
1709299117.926,-36.621,-32.227,-39.551,-52.734,0.000
1709299117.930,-25.391,-34.180,-39.551,-42.969,0.000
1709299117.934,-23.926,-31.250,-32.227,-38.086,0.000
1709299117.938,-39.551,-39.062,-36.621,-47.363,0.000
1709299117.942,-49.805,-38.086,-39.062,-56.152,0.000
1709299117.946,-45.410,-37.109,-40.039,-53.711,0.000
1709299117.950,-29.297,-34.668,-45.410,-36.621,0.000
1709299117.954,-27.832,-29.297,-48.340,-25.391,0.000
1709299117.958,-36.133,-40.039,-49.316,-47.363,0.000
1709299117.961,-41.992,-45.410,-42.480,-57.129,0.000
1709299117.965,-45.410,-35.156,-43.945,-47.363,0.000
1709299117.969,-39.062,-31.250,-53.223,-40.527,0.000
1709299117.973,-37.598,-32.715,-50.293,-44.434,0.000
1709299117.977,-44.434,-43.457,-37.598,-54.688,0.000
1709299117.981,-52.246,-52.734,-33.203,-51.270,0.000
1709299117.985,-54.688,-44.434,-33.691,-48.340,0.000
1709299117.989,-41.992,-40.039,-40.039,-42.480,0.000
1709299117.993,-38.086,-45.410,-46.387,-29.785,0.000
1709299117.997,-45.410,-41.016,-37.598,-33.203,0.000
1709299118.000,-45.898,-30.762,-28.809,-41.016,0.000
1709299118.004,-43.457,-30.273,-32.227,-43.945,0.000
1709299118.008,-38.086,-36.621,-38.574,-36.621,0.000
1709299118.012,-33.691,-33.691,-33.203,-27.344,0.000
1709299118.016,-39.062,-31.250,-31.250,-32.227,0.000
1709299118.020,-50.293,-35.156,-36.133,-41.992,0.000
1709299118.024,-51.758,-39.551,-32.227,-43.945,0.000
1709299118.028,-39.551,-45.898,-24.902,-36.133,0.000
1709299118.032,-32.227,-48.340,-27.832,-33.203,0.000
1709299118.035,-38.574,-46.387,-43.457,-43.457,0.000
1709299118.039,-52.734,-38.574,-41.016,-53.223,0.000
1709299118.043,-62.012,-38.574,-35.156,-51.758,0.000
1709299118.047,-54.688,-46.875,-41.992,-45.410,0.000
1709299118.051,-34.180,-39.551,-38.086,-27.832,0.000
1709299118.055,-29.297,-36.621,-32.227,-21.484,0.000
1709299118.059,-44.434,-42.480,-35.645,-41.992,0.000
1709299118.063,-48.828,-41.504,-40.039,-54.199,0.000
1709299118.067,-36.133,-36.133,-37.109,-37.109,0.000
1709299118.071,-26.367,-39.551,-33.691,-28.320,0.000
1709299118.075,-27.344,-47.363,-33.203,-27.832,0.000
1709299118.079,-37.109,-45.898,-30.273,-29.297,0.000
1709299118.082,-43.945,-40.039,-30.273,-40.527,0.000
1709299118.086,-37.109,-31.738,-22.461,-33.691,0.000
1709299118.090,-29.785,-29.297,-35.156,-22.461,0.000
1709299118.094,-30.762,-28.320,-46.875,-24.902,0.000
1709299118.098,-29.297,-35.156,-33.691,-30.273,0.000
1709299118.102,-37.109,-46.875,-30.762,-29.297,0.000
1709299118.106,-37.109,-39.551,-37.598,-25.879,0.000
1709299118.110,-28.320,-31.250,-30.762,-12.695,0.000
1709299118.114,-30.273,-42.969,-29.297,-10.254,0.000
1709299118.118,-38.574,-44.434,-37.598,-32.227,0.000
1709299118.122,-47.852,-42.480,-34.668,-43.945,0.000
1709299118.125,-45.410,-38.574,-31.738,-36.133,0.000
1709299118.129,-40.039,-32.227,-38.574,-25.391,0.000
1709299118.133,-38.086,-33.691,-37.598,-21.484,0.000
1709299118.137,-46.387,-36.621,-33.203,-41.016,0.000
1709299118.141,-54.199,-39.062,-29.297,-58.594,0.000
1709299118.145,-51.270,-42.480,-30.273,-49.805,0.000
1709299118.149,-46.387,-40.527,-41.016,-33.203,0.000
1709299118.153,-33.203,-32.715,-35.156,-26.855,0.000
1709299118.157,-31.250,-28.809,-24.414,-28.320,0.000
1709299118.161,-34.668,-34.668,-17.090,-38.086,0.000
1709299118.165,-35.156,-36.621,-23.926,-45.410,0.000
1709299118.168,-31.738,-45.410,-37.598,-36.133,0.000
1709299118.172,-21.973,-41.992,-37.109,-30.273,0.000
1709299118.176,-24.414,-31.250,-37.598,-41.016,0.000
1709299118.180,-38.086,-28.320,-39.062,-46.387,0.000
1709299118.184,-45.410,-32.715,-40.039,-48.340,0.000
1709299118.188,-35.156,-41.504,-33.691,-38.574,0.000
1709299118.192,-25.391,-42.969,-26.855,-21.973,0.000
1709299118.196,-32.227,-35.645,-29.785,-36.621,0.000
1709299118.200,-38.574,-35.645,-37.109,-57.129,0.000
1709299118.204,-46.387,-41.504,-40.527,-54.688,0.000
1709299118.208,-41.016,-41.504,-39.551,-35.156,0.000
1709299118.211,-26.855,-41.992,-33.691,-17.090,0.000
1709299118.215,-33.203,-40.527,-33.203,-26.367,0.000
1709299118.219,-44.434,-33.691,-35.645,-42.969,0.000
1709299118.223,-48.340,-32.715,-43.457,-45.898,0.000
1709299118.227,-36.621,-35.156,-37.598,-28.320,0.000
1709299118.231,-23.926,-42.480,-30.762,-20.996,0.000
1709299118.235,-21.973,-38.086,-37.598,-30.273,0.000
1709299118.239,-30.762,-27.832,-43.457,-38.574,0.000
1709299118.243,-42.480,-31.738,-40.527,-44.922,0.000
1709299118.247,-40.527,-37.109,-36.133,-40.527,0.000
1709299118.251,-30.273,-34.668,-39.062,-22.461,0.000
1709299118.254,-29.785,-38.574,-40.039,-22.949,0.000
1709299118.258,-37.598,-40.527,-39.551,-44.922,0.000
1709299118.262,-49.316,-33.203,-36.133,-53.223,0.000
1709299118.266,-44.434,-32.227,-32.227,-49.316,0.000
1709299118.270,-32.715,-44.922,-39.062,-41.016,0.000
1709299118.274,-31.738,-46.875,-39.551,-41.016,0.000
1709299118.278,-36.621,-45.410,-43.945,-58.594,0.000
1709299118.282,-42.480,-39.062,-49.316,-53.711,0.000
1709299118.286,-40.527,-28.809,-43.457,-41.992,0.000
1709299118.290,-34.180,-30.273,-41.504,-37.598,0.000
1709299118.293,-31.250,-26.367,-30.762,-31.250,0.000
1709299118.297,-37.598,-38.086,-34.668,-41.992,0.000
1709299118.301,-52.734,-41.016,-43.457,-58.105,0.000
1709299118.305,-52.246,-32.715,-38.574,-53.223,0.000
1709299118.309,-45.898,-43.945,-46.387,-45.898,0.000
1709299118.313,-44.434,-44.434,-48.340,-41.504,0.000
1709299118.317,-49.316,-35.645,-49.805,-49.316,0.000
1709299118.321,-60.059,-38.574,-49.805,-64.941,0.000
1709299118.325,-57.129,-39.062,-42.480,-58.594,0.000
1709299118.329,-36.621,-29.297,-39.551,-36.133,0.000
1709299118.333,-29.297,-26.855,-35.645,-27.832,0.000
1709299118.337,-37.109,-36.621,-35.645,-36.621,0.000
1709299118.340,-49.805,-44.434,-45.410,-45.898,0.000
1709299118.344,-55.176,-42.969,-41.016,-39.551,0.000
1709299118.348,-41.992,-35.645,-42.969,-23.438,0.000
1709299118.352,-30.762,-40.039,-44.922,-16.602,0.000
1709299118.356,-28.320,-38.086,-27.344,-23.926,0.000
1709299118.360,-43.945,-36.621,-27.832,-40.039,0.000
1709299118.364,-56.641,-39.062,-40.039,-54.199,0.000
1709299118.368,-42.969,-36.621,-38.574,-44.922,0.000
1709299118.372,-31.738,-30.762,-28.320,-29.785,0.000
1709299118.376,-36.133,-29.785,-33.203,-36.621,0.000
1709299118.380,-39.551,-34.180,-31.250,-51.270,0.000
1709299118.384,-42.969,-32.227,-28.809,-53.223,0.000
1709299118.387,-43.457,-33.691,-34.180,-32.227,0.000
1709299118.391,-31.250,-34.668,-36.133,-19.043,0.000
1709299118.395,-20.508,-44.434,-29.785,-21.973,0.000
1709299118.399,-31.738,-44.434,-23.926,-33.691,0.000
1709299118.403,-50.293,-37.598,-28.320,-47.852,0.000
1709299118.407,-43.945,-40.039,-23.438,-40.039,0.000
1709299118.411,-26.855,-41.992,-25.879,-32.227,0.000
1709299118.415,-28.320,-41.504,-33.691,-41.992,0.000
1709299118.419,-43.945,-41.992,-36.133,-57.617,0.000
1709299118.423,-51.270,-44.922,-41.016,-65.430,0.000
1709299118.427,-44.434,-47.363,-41.504,-51.270,0.000
1709299118.430,-26.367,-42.969,-34.668,-22.461,0.000
1709299118.434,-15.137,-39.551,-29.297,-5.859,0.000
1709299118.438,-28.320,-47.363,-31.250,-24.902,0.000
1709299118.442,-42.969,-44.434,-36.133,-42.969,0.000
1709299118.446,-41.992,-36.621,-32.227,-27.344,0.000
1709299118.450,-40.527,-41.016,-34.180,-10.742,0.000
1709299118.454,-37.598,-47.852,-41.504,-15.625,0.000
1709299118.458,-48.828,-44.922,-38.086,-28.809,0.000
1709299118.462,-64.941,-51.270,-34.668,-39.551,0.000
1709299118.466,-61.035,-45.898,-28.809,-35.645,0.000
1709299118.470,-46.875,-30.273,-28.809,-19.043,0.000
1709299118.473,-32.715,-36.621,-41.016,-12.207,0.000
1709299118.477,-38.574,-50.293,-41.992,-20.996,0.000
1709299118.481,-49.805,-42.480,-39.551,-40.039,0.000
1709299118.485,-50.293,-31.738,-44.434,-46.387,0.000
1709299118.489,-46.875,-39.062,-45.410,-39.062,0.000
1709299118.493,-36.133,-43.945,-41.504,-29.785,0.000
1709299118.497,-34.668,-45.898,-39.551,-38.086,0.000
1709299118.501,-43.945,-45.898,-40.527,-58.594,0.000
1709299118.505,-47.852,-41.016,-45.410,-58.594,0.000
1709299118.509,-42.480,-45.410,-36.133,-41.504,0.000
1709299118.513,-32.715,-50.781,-36.133,-34.668,0.000
1709299118.516,-38.574,-47.852,-40.039,-44.922,0.000
1709299118.520,-47.852,-46.875,-37.109,-56.641,0.000
1709299118.524,-43.945,-42.969,-38.574,-46.875,0.000
1709299118.528,-41.504,-34.668,-40.039,-43.945,0.000
1709299118.532,-41.016,-39.551,-39.551,-42.480,0.000
1709299118.536,-35.156,-43.457,-39.551,-33.691,0.000
1709299118.540,-43.945,-37.598,-31.738,-40.527,0.000
1709299118.544,-49.316,-35.156,-26.855,-48.340,0.000
1709299118.548,-39.062,-41.016,-20.996,-41.016,0.000
1709299118.552,-30.762,-45.410,-21.484,-34.668,0.000
1709299118.556,-29.297,-40.527,-32.227,-40.527,0.000
1709299118.559,-40.039,-40.527,-34.180,-50.781,0.000
1709299118.563,-51.270,-44.922,-36.133,-54.199,0.000
1709299118.567,-46.387,-39.551,-36.133,-40.039,0.000
1709299118.571,-36.133,-37.109,-33.691,-25.391,0.000
1709299118.575,-31.738,-34.180,-42.480,-26.855,0.000
1709299118.579,-40.527,-31.738,-50.781,-33.203,0.000
1709299118.583,-53.711,-40.527,-40.527,-42.969,0.000
1709299118.587,-46.387,-43.945,-34.180,-39.551,0.000
1709299118.591,-33.691,-45.410,-32.715,-25.879,0.000
1709299118.595,-35.156,-50.293,-35.156,-30.273,0.000
1709299118.599,-41.992,-52.246,-43.945,-48.340,0.000
1709299118.602,-49.316,-48.340,-44.434,-66.406,0.000
1709299118.606,-46.387,-37.598,-35.156,-62.500,0.000
1709299118.610,-30.762,-38.086,-29.785,-40.527,0.000
1709299118.614,-15.137,-40.527,-37.598,-22.461,0.000
1709299118.618,-22.461,-34.668,-38.086,-37.109,0.000
1709299118.622,-36.133,-44.434,-36.133,-55.664,0.000
1709299118.626,-34.668,-50.293,-36.621,-45.410,0.000
1709299118.630,-27.832,-49.316,-33.203,-32.715,0.000
1709299118.634,-20.996,-42.969,-29.297,-33.691,0.000
1709299118.638,-26.855,-44.922,-36.133,-45.898,0.000
1709299118.641,-45.410,-49.805,-50.781,-56.152,0.000
1709299118.645,-48.340,-47.852,-45.410,-60.547,0.000
1709299118.649,-33.691,-42.969,-37.598,-55.664,0.000
1709299118.653,-29.297,-36.621,-35.645,-48.828,0.000
1709299118.657,-31.738,-37.109,-27.832,-47.852,0.000
1709299118.661,-33.203,-38.574,-26.367,-46.875,0.000
1709299118.665,-37.109,-45.898,-33.691,-50.293,0.000
1709299118.669,-33.203,-45.410,-41.016,-45.898,0.000
1709299118.673,-29.297,-31.738,-40.039,-32.715,0.000
1709299118.677,-41.016,-30.762,-38.574,-42.969,0.000
1709299118.680,-51.758,-35.156,-41.992,-62.012,0.000
1709299118.684,-50.781,-39.551,-38.086,-55.176,0.000
1709299118.688,-45.410,-44.922,-33.691,-45.898,0.000
1709299118.692,-38.574,-41.992,-38.086,-37.109,0.000
1709299118.696,-37.109,-39.062,-40.527,-37.109,0.000
1709299118.700,-50.781,-40.039,-39.551,-48.828,0.000
1709299118.704,-55.176,-50.293,-38.574,-40.527,0.000
1709299118.708,-44.434,-49.805,-35.156,-33.203,0.000
1709299118.712,-36.621,-39.551,-36.621,-27.344,0.000
1709299118.716,-32.715,-39.551,-46.875,-27.832,0.000
1709299118.720,-40.527,-34.180,-50.293,-41.504,0.000
1709299118.723,-47.363,-34.180,-35.645,-41.504,0.000
1709299118.727,-34.180,-38.086,-30.762,-29.785,0.000
1709299118.731,-25.879,-34.668,-37.109,-16.113,0.000
1709299118.735,-35.156,-40.527,-39.551,-24.414,0.000
1709299118.739,-44.434,-48.340,-36.621,-44.434,0.000
1709299118.743,-53.223,-49.805,-41.992,-49.316,0.000
1709299118.747,-48.828,-42.480,-43.457,-31.738,0.000
1709299118.751,-38.574,-38.086,-35.156,-13.672,0.000
1709299118.755,-36.133,-47.852,-35.645,-19.043,0.000
1709299118.759,-41.016,-52.246,-39.062,-36.621,0.000
1709299118.762,-50.781,-41.016,-37.598,-49.805,0.000
1709299118.766,-47.852,-34.668,-39.062,-40.527,0.000
1709299118.770,-39.551,-42.480,-38.086,-34.668,0.000
1709299118.774,-38.086,-37.109,-36.133,-39.062,0.000
1709299118.778,-44.922,-31.738,-34.180,-42.480,0.000
1709299118.782,-56.152,-39.551,-34.180,-55.176,0.000
1709299118.786,-54.688,-44.434,-39.062,-53.711,0.000
1709299118.790,-41.992,-41.992,-42.969,-41.504,0.000
1709299118.794,-35.156,-46.387,-36.133,-28.320,0.000
1709299118.797,-48.828,-48.828,-34.180,-41.992,0.000
1709299118.801,-62.500,-45.410,-33.691,-63.477,0.000
1709299118.805,-53.711,-37.109,-33.203,-54.688,0.000
1709299118.809,-38.574,-29.785,-38.086,-41.016,0.000
1709299118.813,-25.879,-33.203,-31.738,-27.832,0.000
1709299118.817,-33.691,-37.109,-39.062,-31.738,0.000
1709299118.821,-47.852,-33.203,-47.363,-50.293,0.000
1709299118.825,-49.805,-33.691,-44.922,-54.199,0.000
1709299118.829,-38.086,-34.180,-40.039,-40.039,0.000
1709299118.833,-25.391,-37.109,-31.250,-28.320,0.000
1709299118.837,-28.320,-40.527,-27.832,-27.832,0.000
1709299118.841,-42.480,-41.016,-30.762,-41.504,0.000
1709299118.845,-51.758,-36.621,-33.203,-54.688,0.000
1709299118.849,-38.574,-35.156,-30.762,-43.457,0.000
1709299118.852,-31.250,-38.574,-33.691,-27.344,0.000
1709299118.856,-38.574,-37.109,-39.062,-36.621,0.000
1709299118.860,-44.922,-35.645,-40.039,-50.781,0.000
1709299118.865,0.000,-35.645,0.000,0.000,0.000
1709299118.868,0.000,-33.691,0.000,0.000,0.000
1709299118.872,0.000,-37.598,0.000,0.000,0.000
1709299118.876,0.000,-45.410,0.000,0.000,0.000
1709299118.880,0.000,-34.180,0.000,0.000,0.000
1709299118.884,0.000,-32.227,0.000,0.000,0.000
1709299118.888,0.000,-39.551,0.000,0.000,0.000
1709299118.892,0.000,-42.480,0.000,0.000,0.000
1709299118.896,0.000,-48.828,0.000,0.000,0.000
1709299118.900,0.000,-46.875,0.000,0.000,0.000
1709299118.904,0.000,-39.062,0.000,0.000,0.000
1709299118.907,0.000,-26.855,0.000,0.000,0.000
1709299118.911,-26.367,-28.809,-24.414,-20.996,0.000
1709299118.915,-23.926,-33.691,-35.645,-14.648,0.000
1709299118.919,-38.086,-32.715,-37.109,-40.527,0.000
1709299118.923,-50.293,-38.086,-36.133,-54.688,0.000
1709299118.927,-39.551,-43.945,-43.945,-44.434,0.000
1709299118.931,-27.832,-46.387,-46.387,-39.551,0.000
1709299118.935,-31.250,-41.992,-39.551,-45.898,0.000
1709299118.939,-33.691,-39.062,-37.109,-52.734,0.000
1709299118.943,-41.504,-45.898,-31.250,-51.758,0.000
1709299118.947,-44.922,-40.527,-27.832,-47.852,0.000
1709299118.950,-36.133,-27.832,-35.645,-40.527,0.000
1709299118.954,-38.086,-33.203,-37.109,-31.250,0.000
1709299118.958,-43.945,-37.109,-34.180,-34.668,0.000
1709299118.962,-51.758,-37.598,-40.039,-55.176,0.000
1709299118.966,-50.293,-45.410,-38.574,-49.805,0.000
1709299118.970,-34.180,-40.039,-39.062,-31.250,0.000
1709299118.974,-25.879,-31.250,-38.086,-25.879,0.000
1709299118.978,-32.715,-38.086,-36.133,-40.527,0.000
1709299118.982,-41.992,-44.922,-36.133,-53.711,0.000
1709299118.986,-45.410,-50.781,-33.203,-46.875,0.000
1709299118.990,-34.668,-44.922,-33.203,-24.902,0.000
1709299118.993,-27.832,-28.809,-34.180,-19.531,0.000
1709299118.997,-37.598,-28.809,-35.156,-29.785,0.000
1709299119.001,-49.805,-34.180,-41.504,-36.133,0.000
1709299119.005,-52.734,-34.180,-40.527,-39.551,0.000
1709299119.009,-39.062,-41.992,-37.598,-23.926,0.000
1709299119.013,-25.879,-44.922,-41.504,-11.719,0.000
1709299119.017,-31.250,-35.645,-39.551,-23.438,0.000
1709299119.021,-49.316,-31.738,-28.809,-35.645,0.000
1709299119.025,-59.082,-37.109,-34.668,-43.457,0.000
1709299119.029,-44.434,-44.434,-41.016,-34.668,0.000
1709299119.032,-28.320,-44.434,-31.250,-17.090,0.000
1709299119.036,-37.598,-32.715,-34.668,-26.367,0.000
1709299119.040,-50.781,-28.320,-36.133,-51.270,0.000
1709299119.044,-61.523,-35.156,-38.574,-55.176,0.000
1709299119.048,-49.316,-35.156,-37.109,-39.551,0.000
1709299119.052,-31.738,-33.691,-34.180,-27.832,0.000
1709299119.056,-29.785,-30.273,-38.086,-33.691,0.000
1709299119.060,-33.691,-25.391,-41.016,-39.551,0.000
1709299119.064,-47.852,-29.785,-38.574,-51.270,0.000
1709299119.068,-39.551,-32.715,-41.016,-49.316,0.000
1709299119.071,-24.414,-38.086,-34.180,-33.691,0.000
1709299119.075,-30.273,-41.016,-34.180,-34.180,0.000
1709299119.079,-42.969,-43.945,-44.922,-40.039,0.000
1709299119.083,-52.246,-39.551,-36.133,-48.340,0.000
1709299119.087,-50.293,-34.668,-30.762,-51.270,0.000
1709299119.091,-41.016,-42.480,-37.598,-41.504,0.000
1709299119.095,-30.273,-41.016,-42.480,-38.086,0.000
1709299119.099,-36.621,-35.645,-39.551,-50.781,0.000
1709299119.103,-53.711,-31.738,-37.109,-59.570,0.000
1709299119.107,-51.758,-37.598,-37.598,-51.758,0.000
1709299119.110,-34.180,-48.340,-35.645,-37.598,0.000
1709299119.114,-28.320,-42.480,-37.109,-38.574,0.000
1709299119.118,-42.480,-34.180,-43.457,-51.758,0.000
1709299119.122,-51.270,-25.879,-37.109,-51.758,0.000
1709299119.126,-49.316,-22.949,-33.203,-37.109,0.000
1709299119.130,-34.668,-25.879,-41.504,-26.367,0.000
1709299119.134,-25.879,-26.367,-43.457,-19.531,0.000
1709299119.138,-36.621,-25.879,-37.598,-28.320,0.000
1709299119.142,-45.898,-32.227,-37.598,-41.504,0.000
1709299119.145,-40.039,-37.109,-34.180,-32.715,0.000
1709299119.149,-27.344,-34.180,-33.203,-13.184,0.000
1709299119.153,-23.438,-33.203,-39.551,-9.277,0.000
1709299119.157,-33.691,-33.203,-41.016,-23.926,0.000
1709299119.161,-41.504,-29.785,-31.738,-42.480,0.000
1709299119.165,-38.086,-36.133,-27.344,-39.551,0.000
1709299119.169,-30.762,-47.852,-34.180,-23.438,0.000
1709299119.173,-22.461,-39.551,-32.227,-21.973,0.000
1709299119.177,-24.414,-31.738,-32.715,-27.344,0.000
1709299119.181,-35.156,-37.109,-31.738,-37.598,0.000
1709299119.185,-36.133,-37.109,-24.414,-26.855,0.000
1709299119.188,-24.414,-43.457,-31.250,-14.648,0.000
1709299119.192,-19.043,-42.480,-36.133,-12.207,0.000
1709299119.196,-28.809,-42.969,-35.156,-12.695,0.000
1709299119.200,-44.434,-45.410,-36.621,-34.668,0.000
1709299119.204,-53.711,-36.621,-37.109,-44.922,0.000
1709299119.208,-47.852,-45.410,-36.133,-33.203,0.000
1709299119.212,-36.133,-49.316,-40.527,-25.879,0.000
1709299119.216,-39.062,-41.016,-39.062,-24.414,0.000
1709299119.220,-52.246,-39.062,-33.691,-40.527,0.000
1709299119.224,-54.688,-35.156,-37.109,-50.781,0.000
1709299119.228,-45.410,-41.016,-35.156,-26.367,0.000
1709299119.231,-35.645,-41.016,-26.855,-14.648,0.000
1709299119.235,-37.598,-33.203,-34.180,-23.926,0.000
1709299119.239,-45.410,-41.016,-38.574,-33.203,0.000
1709299119.243,-51.270,-38.086,-37.598,-48.828,0.000
1709299119.247,-44.922,-30.762,-36.133,-43.457,0.000
1709299119.251,-36.133,-41.016,-36.133,-30.762,0.000
1709299119.255,-36.621,-41.992,-41.504,-31.250,0.000
1709299119.259,-46.387,-44.434,-41.016,-38.086,0.000
1709299119.263,-58.105,-45.898,-38.574,-43.457,0.000
1709299119.267,-50.293,-37.109,-35.156,-38.086,0.000
1709299119.271,-29.297,-41.504,-31.250,-20.020,0.000
1709299119.274,-21.484,-49.316,-27.344,-7.324,0.000
1709299119.278,-37.109,-45.898,-34.180,-24.902,0.000
1709299119.282,-47.852,-46.387,-27.344,-41.504,0.000
1709299119.286,-47.852,-49.805,-24.414,-43.945,0.000
1709299119.290,-35.645,-42.969,-28.809,-34.180,0.000
1709299119.294,-27.832,-36.133,-30.273,-30.762,0.000
1709299119.298,-36.133,-34.180,-34.180,-41.016,0.000
1709299119.302,-48.828,-37.109,-30.273,-52.734,0.000
1709299119.306,-49.316,-43.945,-29.297,-49.316,0.000
1709299119.310,-31.738,-47.852,-30.762,-26.855,0.000
1709299119.314,-20.508,-48.340,-28.320,-25.391,0.000
1709299119.317,-25.391,-44.434,-32.227,-30.273,0.000
1709299119.321,-35.645,-39.551,-34.180,-36.133,0.000
1709299119.325,-45.898,-34.668,-39.551,-52.246,0.000
1709299119.329,-37.109,-34.668,-40.527,-37.598,0.000
1709299119.333,-26.855,-39.551,-36.621,-23.926,0.000
1709299119.337,-33.691,-41.016,-38.574,-42.480,0.000
1709299119.341,-42.969,-47.363,-40.039,-58.105,0.000
1709299119.345,-41.504,-53.711,-36.133,-46.387,0.000
1709299119.349,-32.715,-47.852,-35.645,-34.668,0.000
1709299119.353,-21.484,-43.945,-41.504,-22.461,0.000
1709299119.356,-18.555,-41.016,-39.551,-26.367,0.000
1709299119.360,-30.273,-35.156,-38.086,-43.457,0.000
1709299119.364,-39.551,-35.645,-44.434,-43.457,0.000
1709299119.368,-39.551,-35.156,-46.387,-43.457,0.000
1709299119.372,-27.832,-35.156,-47.363,-36.133,0.000
1709299119.376,-27.832,-40.039,-37.109,-37.109,0.000
1709299119.380,-45.410,-37.109,-29.785,-57.129,0.000
1709299119.384,-59.082,-41.992,-36.133,-67.871,0.000
1709299119.388,-55.176,-53.223,-34.180,-54.199,0.000
1709299119.392,-45.898,-52.246,-37.109,-41.016,0.000
1709299119.396,-46.875,-55.176,-42.969,-42.969,0.000
1709299119.399,-53.223,-51.758,-37.598,-50.293,0.000
1709299119.403,-55.176,-38.574,-33.691,-55.664,0.000
1709299119.407,-44.922,-35.156,-33.203,-37.109,0.000
1709299119.411,-32.227,-36.133,-31.738,-16.113,0.000
1709299119.415,-23.926,-28.320,-30.762,-19.531,0.000
1709299119.419,-24.902,-20.996,-31.250,-29.297,0.000
1709299119.423,-37.598,-27.344,-40.039,-40.039,0.000
1709299119.427,-36.621,-41.504,-34.668,-29.785,0.000
1709299119.431,-26.367,-44.922,-22.949,-14.648,0.000
1709299119.435,-23.438,-45.410,-24.902,-21.973,0.000
1709299119.438,-26.367,-41.504,-34.668,-35.156,0.000
1709299119.442,-33.691,-34.668,-32.227,-41.504,0.000
1709299119.446,-45.898,-29.297,-27.344,-32.715,0.000
1709299119.450,-40.039,-29.785,-41.504,-23.438,0.000
1709299119.454,-29.785,-35.156,-40.039,-14.160,0.000
1709299119.458,-39.062,-35.645,-34.668,-31.250,0.000
1709299119.462,-41.504,-37.598,-32.227,-38.086,0.000
1709299119.466,-38.086,-42.480,-32.227,-34.180,0.000
1709299119.470,-29.785,-52.246,-38.574,-29.785,0.000
1709299119.473,-25.879,-59.570,-31.738,-22.949,0.000
1709299119.477,-34.180,-46.875,-25.879,-31.250,0.000
1709299119.481,-44.922,-39.062,-30.762,-47.852,0.000
1709299119.485,-51.270,-42.969,-34.668,-45.410,0.000
1709299119.489,-45.410,-35.156,-34.668,-32.227,0.000
1709299119.493,-39.062,-30.762,-36.621,-29.785,0.000
1709299119.497,-44.922,-38.086,-44.922,-33.203,0.000
1709299119.501,-58.594,-40.527,-46.387,-47.852,0.000
1709299119.505,-53.711,-40.527,-40.527,-47.363,0.000
1709299119.509,-33.203,-41.016,-37.109,-29.785,0.000
1709299119.513,-25.391,-46.387,-33.691,-24.902,0.000
1709299119.516,-29.297,-43.945,-33.203,-24.414,0.000
1709299119.520,-35.645,-31.250,-33.691,-32.227,0.000
1709299119.524,-39.551,-29.297,-27.832,-30.762,0.000
1709299119.528,-35.156,-40.039,-24.414,-19.043,0.000
1709299119.532,-27.832,-45.898,-27.344,-18.555,0.000
1709299119.536,-33.203,-38.574,-31.738,-24.414,0.000
1709299119.540,-56.152,-41.992,-38.086,-41.504,0.000
1709299119.544,-66.895,-42.480,-34.668,-39.551,0.000
1709299119.548,-60.547,-34.668,-26.855,-29.785,0.000
1709299119.552,-49.316,-40.527,-28.320,-26.367,0.000
1709299119.555,-39.551,-41.016,-26.855,-24.414,0.000
1709299119.559,-46.875,-28.809,-25.879,-35.645,0.000
1709299119.563,-45.410,-27.344,-26.367,-49.316,0.000
1709299119.567,-31.250,-36.133,-32.227,-48.828,0.000
1709299119.571,-21.484,-32.227,-36.621,-36.133,0.000
1709299119.575,-17.578,-26.367,-41.016,-37.109,0.000
1709299119.579,-25.391,-27.832,-44.434,-47.363,0.000
1709299119.583,-33.691,-23.926,-31.250,-47.852,0.000
1709299119.587,-24.414,-25.879,-20.508,-33.691,0.000
1709299119.591,-14.648,-37.598,-21.973,-23.926,0.000
1709299119.595,-21.973,-34.180,-28.809,-31.738,0.000
1709299119.598,-32.715,-29.297,-32.715,-40.527,0.000
1709299119.602,-37.598,-39.062,-29.785,-39.062,0.000
1709299119.606,-33.691,-40.527,-30.273,-37.109,0.000
1709299119.610,-28.320,-36.621,-33.691,-33.203,0.000
1709299119.614,-32.715,-38.086,-37.109,-30.762,0.000
1709299119.618,-36.621,-40.039,-41.016,-33.691,0.000
1709299119.622,-42.480,-35.156,-40.039,-39.062,0.000
1709299119.626,-51.270,-36.133,-37.109,-39.551,0.000
1709299119.630,-43.457,-47.852,-38.574,-31.250,0.000
1709299119.634,-31.250,-46.875,-36.621,-30.273,0.000
1709299119.638,-40.527,-33.203,-33.691,-36.621,0.000
1709299119.641,-62.012,-36.621,-40.527,-49.316,0.000
1709299119.645,-64.941,-40.527,-46.387,-50.293,0.000
1709299119.649,-51.758,-34.180,-43.457,-27.344,0.000
1709299119.653,-41.016,-34.180,-30.273,-21.973,0.000
1709299119.657,-37.109,-37.109,-36.621,-31.738,0.000
1709299119.661,-42.480,-41.016,-48.340,-42.480,0.000
1709299119.665,-50.293,-39.062,-32.715,-44.434,0.000
1709299119.669,-42.969,-40.527,-32.227,-37.109,0.000
1709299119.673,-30.273,-46.875,-39.551,-32.227,0.000
1709299119.677,-26.367,-36.621,-34.180,-37.598,0.000
1709299119.681,-30.762,-30.762,-34.180,-45.898,0.000
1709299119.684,-35.645,-32.715,-35.645,-44.922,0.000
1709299119.688,-28.320,-25.879,-30.273,-34.180,0.000
1709299119.692,-22.461,-34.180,-36.621,-26.367,0.000
1709299119.696,-25.879,-41.992,-41.016,-39.062,0.000
1709299119.700,-37.109,-33.691,-37.109,-59.570,0.000
1709299119.704,-54.199,-31.738,-37.598,-65.430,0.000
1709299119.708,-46.875,-47.363,-35.645,-52.246,0.000
1709299119.712,-35.156,-46.387,-39.062,-38.574,0.000
1709299119.716,-47.363,-30.762,-35.645,-45.898,0.000
1709299119.720,-57.617,-34.668,-35.645,-60.059,0.000
1709299119.724,-62.988,-43.945,-41.992,-66.406,0.000
1709299119.727,-59.082,-34.668,-40.527,-53.223,0.000
1709299119.731,-52.246,-33.691,-41.504,-41.992,0.000
1709299119.735,-49.805,-47.363,-41.016,-48.828,0.000
1709299119.739,-55.176,-39.062,-32.227,-52.734,0.000
1709299119.743,-66.406,-32.227,-28.809,-60.059,0.000
1709299119.747,-64.941,-43.945,-32.715,-57.617,0.000
1709299119.751,-47.852,-40.527,-29.785,-48.828,0.000
1709299119.755,-41.016,-33.203,-30.762,-51.270,0.000
1709299119.759,-46.387,-35.645,-43.945,-55.176,0.000
1709299119.763,-54.688,-37.598,-45.898,-59.570,0.000
1709299119.766,-54.688,-29.785,-29.785,-53.711,0.000
1709299119.770,-44.434,-37.109,-25.879,-37.598,0.000
1709299119.774,-35.645,-35.645,-35.645,-31.250,0.000
1709299119.778,-43.945,-27.344,-37.109,-44.434,0.000
1709299119.782,-50.293,-35.156,-33.203,-44.434,0.000
1709299119.786,-42.969,-38.574,-35.156,-39.062,0.000
1709299119.790,-29.297,-31.738,-33.691,-27.344,0.000
1709299119.794,-19.531,-32.715,-30.273,-16.602,0.000
1709299119.798,-27.832,-39.062,-33.203,-34.180,0.000
1709299119.802,-49.316,-34.668,-39.551,-53.711,0.000
1709299119.805,-54.688,-27.832,-41.504,-55.664,0.000
1709299119.809,-43.457,-37.109,-39.062,-43.945,0.000
1709299119.813,-38.086,-48.340,-46.387,-40.527,0.000
1709299119.817,-38.574,-39.062,-49.316,-41.992,0.000
1709299119.821,-44.922,-31.250,-38.086,-50.781,0.000
1709299119.825,-48.828,-34.180,-35.156,-52.734,0.000
1709299119.829,-40.527,-37.598,-32.227,-24.414,0.000
1709299119.833,-31.738,-31.250,-35.156,-23.438,0.000
1709299119.837,-38.086,-32.227,-41.504,-38.086,0.000
1709299119.841,-46.387,-34.180,-41.016,-39.551,0.000
1709299119.845,-45.898,-26.855,-39.062,-38.574,0.000
1709299119.848,-41.992,-35.645,-43.945,-24.902,0.000
1709299119.852,-34.668,-41.016,-46.875,-19.531,0.000
1709299119.856,-37.598,-33.203,-35.156,-28.809,0.000
1709299119.860,-49.805,-38.086,-32.715,-44.922,0.000
1709299119.864,-53.223,-43.457,-35.645,-52.246,0.000
1709299119.868,-44.434,-39.551,-38.086,-41.016,0.000
1709299119.872,-36.133,-38.086,-40.527,-21.973,0.000
1709299119.876,-40.039,-26.855,-35.645,-28.809,0.000
1709299119.880,-52.246,-31.250,-44.922,-53.711,0.000
1709299119.883,-61.523,-43.457,-45.410,-56.152,0.000
1709299119.887,-57.617,-39.062,-39.062,-44.922,0.000
1709299119.891,-41.504,-33.203,-35.645,-34.180,0.000
1709299119.895,0.000,-36.621,-34.668,-37.109,0.000
1709299119.899,0.000,-41.504,-30.762,-52.734,0.000
1709299119.903,0.000,-53.711,-26.367,-57.617,0.000
1709299119.907,0.000,-55.176,-33.203,-52.246,0.000
1709299119.911,0.000,-44.922,-41.016,-44.922,0.000
1709299119.915,0.000,-41.992,-39.551,-42.480,0.000
1709299119.919,0.000,-41.016,-35.156,-47.852,0.000
1709299119.922,0.000,-27.344,-37.109,-57.617,0.000
1709299119.926,0.000,-22.461,-32.715,-51.758,0.000
1709299119.930,0.000,-26.855,-31.738,-38.574,0.000
1709299119.934,0.000,-33.691,-44.434,-32.227,0.000
1709299119.938,0.000,-47.852,-38.086,-40.039,0.000
1709299119.942,-48.340,-55.176,-23.926,-46.875,0.000
1709299119.946,-50.781,-42.969,-27.832,-37.109,0.000
1709299119.950,-41.992,-25.391,-33.203,-29.297,0.000
1709299119.954,-38.086,-30.273,-37.598,-26.855,0.000
1709299119.958,-44.434,-40.527,-41.016,-40.039,0.000
1709299119.962,-55.176,-35.645,-35.156,-49.316,0.000
1709299119.965,-55.176,-30.762,-36.133,-47.852,0.000
1709299119.969,-33.691,-29.785,-37.109,-37.109,0.000
1709299119.973,-16.602,-33.691,-26.367,-24.902,0.000
1709299119.977,-25.879,-37.109,-29.297,-31.250,0.000
1709299119.981,-39.062,-33.691,-36.133,-41.992,0.000
1709299119.985,-44.434,-32.227,-26.855,-41.504,0.000
1709299119.989,-41.016,-27.344,-20.996,-36.133,0.000
1709299119.993,-36.621,-33.203,-29.785,-39.551,0.000
1709299119.997,-38.086,-32.715,-31.250,-45.898,0.000
1709299120.001,-54.199,-35.645,-29.297,-63.477,0.000
1709299120.005,-68.359,-42.969,-35.645,-72.754,0.000
1709299120.009,-54.688,-43.457,-37.598,-59.082,0.000
1709299120.012,-43.457,-48.340,-41.504,-47.852,0.000
1709299120.016,-45.898,-42.969,-41.992,-48.340,0.000
1709299120.020,-57.129,-36.133,-37.109,-54.199,0.000
1709299120.024,-53.711,-35.156,-30.762,-39.551,0.000
1709299120.028,-43.945,-37.109,-27.344,-30.762,0.000
1709299120.032,-35.156,-35.156,-27.832,-24.414,0.000
1709299120.036,-31.250,-34.668,-25.391,-21.484,0.000
1709299120.040,-38.574,-26.855,-28.809,-37.598,0.000
1709299120.044,-41.992,-23.438,-36.621,-39.551,0.000
1709299120.048,-32.227,-29.297,-34.180,-27.832,0.000
1709299120.052,-25.391,-35.645,-29.785,-22.461,0.000
1709299120.055,-28.809,-41.016,-33.203,-30.762,0.000
1709299120.059,-40.039,-32.715,-30.273,-43.945,0.000
1709299120.063,-44.922,-29.297,-26.367,-46.387,0.000
1709299120.067,-31.738,-41.504,-35.156,-29.785,0.000
1709299120.071,-20.996,-45.898,-39.551,-19.531,0.000
1709299120.075,-18.555,-38.574,-38.574,-29.297,0.000
1709299120.079,-26.855,-27.832,-42.480,-36.621,0.000
1709299120.083,-31.738,-18.066,-41.504,-35.645,0.000
1709299120.087,-26.855,-25.391,-38.086,-24.414,0.000
1709299120.091,-13.672,-31.250,-26.855,-7.324,0.000
1709299120.094,-10.742,-30.762,-17.578,-9.277,0.000
1709299120.098,-28.320,-31.738,-26.855,-26.855,0.000
1709299120.102,-41.016,-31.738,-33.691,-35.156,0.000
1709299120.106,-34.668,-33.203,-28.809,-28.320,0.000
1709299120.110,-23.438,-41.016,-27.832,-19.531,0.000
1709299120.114,-21.484,-35.645,-36.621,-13.672,0.000
1709299120.118,-36.621,-28.809,-36.621,-33.203,0.000
1709299120.122,-47.363,-27.344,-32.227,-57.617,0.000
1709299120.126,-45.410,-21.973,-35.156,-54.199,0.000
1709299120.130,-38.574,-28.320,-45.410,-39.062,0.000
1709299120.133,-35.645,-38.086,-46.875,-34.180,0.000
1709299120.137,-41.992,-40.039,-40.039,-45.410,0.000
1709299120.141,-49.805,-36.133,-39.062,-60.059,0.000
1709299120.145,-47.363,-49.805,-33.691,-59.082,0.000
1709299120.149,-35.156,-60.059,-31.738,-42.969,0.000
1709299120.153,-30.762,-43.945,-32.715,-30.273,0.000
1709299120.157,-39.551,-29.785,-34.180,-35.645,0.000
1709299120.161,-50.293,-27.832,-32.715,-45.898,0.000
1709299120.165,-51.758,-29.297,-36.133,-46.875,0.000
1709299120.169,-35.156,-30.762,-50.781,-31.250,0.000
1709299120.173,-21.973,-31.738,-44.922,-21.973,0.000
1709299120.176,-28.809,-38.086,-31.250,-28.809,0.000
1709299120.180,-37.109,-41.016,-31.738,-45.898,0.000
1709299120.184,-42.480,-42.969,-32.227,-44.434,0.000
1709299120.188,-34.668,-46.875,-32.227,-22.949,0.000
1709299120.192,-20.020,-54.199,-28.809,-13.672,0.000
1709299120.196,-21.484,-46.875,-27.344,-19.043,0.000
1709299120.200,-32.715,-36.621,-29.785,-30.762,0.000
1709299120.204,-37.109,-35.156,-29.785,-21.973,0.000
1709299120.208,-32.715,-35.645,-31.738,-16.113,0.000
1709299120.212,-26.367,-34.668,-36.133,-20.996,0.000
1709299120.215,-30.273,-25.391,-34.180,-27.832,0.000
1709299120.219,-43.457,-26.855,-36.621,-34.180,0.000
1709299120.223,-53.223,-33.203,-40.039,-42.480,0.000
1709299120.227,-53.711,-38.574,-39.551,-38.086,0.000
1709299120.231,-44.434,-49.805,-43.457,-20.020,0.000
1709299120.235,-48.340,-47.852,-44.434,-20.996,0.000
1709299120.239,-63.965,-42.969,-40.527,-42.969,0.000
1709299120.243,-68.359,-42.480,-37.598,-49.805,0.000
1709299120.247,-60.059,-37.598,-31.250,-33.691,0.000
1709299120.251,-47.363,-30.273,-31.738,-14.160,0.000
1709299120.254,-36.133,-28.809,-32.715,-21.973,0.000
1709299120.258,-39.551,-27.832,-31.738,-37.109,0.000
1709299120.262,-46.875,-24.902,-32.715,-37.109,0.000
1709299120.266,-48.340,-25.879,-32.227,-35.156,0.000
1709299120.270,-47.363,-48.340,-35.156,-34.180,0.000
1709299120.274,-34.180,-62.012,-30.762,-23.438,0.000
1709299120.278,-38.574,-42.969,-29.297,-26.367,0.000
1709299120.282,-57.129,-29.785,-36.621,-43.945,0.000
1709299120.286,-52.246,-31.250,-34.668,-41.992,0.000
1709299120.290,-40.527,-34.180,-32.227,-33.203,0.000
1709299120.293,-38.086,-35.156,-30.762,-20.020,0.000
1709299120.297,-46.387,-32.715,-34.668,-24.902,0.000
1709299120.301,-55.176,-36.621,-41.992,-40.527,0.000
1709299120.305,-48.828,-40.039,-38.086,-35.645,0.000
1709299120.309,-33.203,-37.109,-35.156,-26.367,0.000
1709299120.313,-22.949,-44.922,-40.039,-23.926,0.000
1709299120.317,-22.461,-53.711,-34.180,-24.414,0.000
1709299120.321,-37.598,-38.574,-32.715,-34.668,0.000
1709299120.325,-45.410,-30.273,-33.691,-40.039,0.000
1709299120.329,-32.715,-36.621,-30.273,-30.762,0.000
1709299120.333,-25.879,-34.180,-34.180,-23.438,0.000
1709299120.336,-32.227,-36.621,-29.785,-19.043,0.000
1709299120.340,-45.410,-44.922,-32.715,-30.273,0.000
1709299120.344,-50.293,-34.180,-36.621,-39.062,0.000
1709299120.348,-38.086,-24.414,-31.738,-22.949,0.000
1709299120.352,-29.785,-34.180,-31.250,-2.441,0.000
1709299120.356,-31.738,-38.086,-25.391,-11.230,0.000
1709299120.360,-35.645,-43.457,-24.902,-24.902,0.000
1709299120.364,-41.016,-52.246,-29.785,-27.832,0.000
1709299120.368,-42.969,-48.340,-41.992,-31.250,0.000
1709299120.372,-38.574,-47.852,-45.410,-24.414,0.000
1709299120.376,-30.762,-35.156,-28.320,-24.902,0.000
1709299120.379,-39.062,-25.879,-26.855,-39.551,0.000
1709299120.383,-54.688,-35.645,-37.598,-51.758,0.000
1709299120.387,-47.852,-37.109,-42.969,-46.875,0.000
1709299120.391,-31.250,-28.320,-38.086,-29.785,0.000
1709299120.395,-32.227,-33.691,-35.156,-33.203,0.000
1709299120.399,-41.504,-38.086,-39.551,-37.598,0.000
1709299120.403,-48.828,-40.527,-47.363,-45.410,0.000
1709299120.407,-38.574,-53.223,-41.504,-41.016,0.000
